Frequency (Hz)	Level (dB)
43.066406	-55.823990
86.132813	-58.830952
129.199219	-58.256081
172.265625	-61.931721
215.332031	-61.427128
258.398438	-62.927723
301.464844	-63.843487
344.531250	-64.268379
387.597656	-65.992355
430.664063	-67.326004
473.730469	-69.324440
516.796875	-71.921906
559.863281	-74.969269
602.929688	-77.265099
645.996094	-77.414063
689.062500	-77.500854
732.128906	-77.354698
775.195313	-76.742638
818.261719	-76.585381
861.328125	-76.885956
904.394531	-78.847076
947.460938	-78.370110
990.527344	-78.685577
1033.593750	-78.394859
1076.660156	-78.343628
1119.726563	-78.838120
1162.792969	-78.082748
1205.859375	-78.020584
1248.925781	-79.200882
1291.992188	-79.748825
1335.058594	-80.538078
1378.125000	-81.515884
1421.191406	-82.329590
1464.257813	-84.613365
1507.324219	-85.768692
1550.390625	-86.162483
1593.457031	-86.951782
1636.523438	-86.818848
1679.589844	-87.836380
1722.656250	-89.333458
1765.722656	-89.926407
1808.789063	-90.165955
1851.855469	-90.720901
1894.921875	-91.031853
1937.988281	-91.793724
1981.054688	-91.725098
2024.121094	-91.851387
2067.187500	-91.614639
2110.253906	-90.998497
2153.320313	-90.434448
2196.386719	-90.116463
2239.453125	-90.844818
2282.519531	-92.100182
2325.585938	-93.070007
2368.652344	-93.265213
2411.718750	-92.221001
2454.785156	-92.011177
2497.851563	-92.139046
2540.917969	-93.254021
2583.984375	-93.994164
2627.050781	-93.268990
2670.117188	-93.164528
2713.183594	-93.980438
2756.250000	-95.229851
2799.316406	-95.301262
2842.382813	-95.742302
2885.449219	-95.591042
2928.515625	-95.829224
2971.582031	-95.838951
3014.648438	-95.970772
3057.714844	-96.260475
3100.781250	-96.803207
3143.847656	-96.952988
3186.914063	-97.262871
3229.980469	-96.517433
3273.046875	-95.776482
3316.113281	-94.742462
3359.179688	-90.648720
3402.246094	-91.481735
3445.312500	-95.181358
3488.378906	-97.381447
3531.445313	-97.368889
3574.511719	-93.997360
3617.578125	-94.536331
3660.644531	-98.402336
3703.710938	-98.964500
3746.777344	-98.780258
3789.843750	-98.610748
3832.910156	-97.565933
3875.976563	-94.808662
3919.042969	-95.442833
3962.109375	-95.556068
4005.175781	-94.541183
4048.242188	-95.417603
4091.308594	-95.649605
4134.375000	-95.380112
4177.441406	-96.409889
4220.507813	-96.886559
4263.574219	-97.626083
4306.640625	-96.288979
4349.707031	-95.101524
4392.773438	-94.933632
4435.839844	-95.387794
4478.906250	-95.851639
4521.972656	-95.455490
4565.039063	-95.873772
4608.105469	-97.189316
4651.171875	-98.008301
4694.238281	-98.486786
4737.304688	-98.508850
4780.371094	-98.348465
4823.437500	-96.465858
4866.503906	-96.545044
4909.570313	-98.076408
4952.636719	-99.244080
4995.703125	-97.794769
5038.769531	-96.797028
5081.835938	-96.174927
5124.902344	-97.727676
5167.968750	-100.663979
5211.035156	-100.024216
5254.101563	-97.680260
5297.167969	-95.336021
5340.234375	-97.167976
5383.300781	-100.636330
5426.367188	-99.020554
5469.433594	-97.023270
5512.500000	-96.303169
5555.566406	-97.313507
5598.632813	-99.204491
5641.699219	-100.289215
5684.765625	-99.728638
5727.832031	-97.798363
5770.898438	-96.766342
5813.964844	-96.998444
5857.031250	-97.592667
5900.097656	-98.031906
5943.164063	-97.857056
5986.230469	-96.961960
6029.296875	-97.477371
6072.363281	-98.174072
6115.429688	-98.513901
6158.496094	-99.982712
6201.562500	-101.512794
6244.628906	-101.400208
6287.695313	-100.889427
6330.761719	-101.154961
6373.828125	-101.080185
6416.894531	-100.427475
6459.960938	-100.526398
6503.027344	-100.784569
6546.093750	-100.584213
6589.160156	-100.787384
6632.226563	-100.911682
6675.292969	-100.553680
6718.359375	-100.095016
6761.425781	-99.757156
6804.492188	-98.723602
6847.558594	-98.107071
6890.625000	-98.780800
6933.691406	-99.381508
6976.757813	-99.754349
7019.824219	-99.093430
7062.890625	-98.108856
7105.957031	-97.195053
7149.023438	-96.174438
7192.089844	-96.469643
7235.156250	-97.416321
7278.222656	-97.639397
7321.289063	-98.258232
7364.355469	-99.278297
7407.421875	-100.432816
7450.488281	-99.845268
7493.554688	-98.417694
7536.621094	-98.962059
7579.687500	-98.054352
7622.753906	-97.614105
7665.820313	-97.396072
7708.886719	-97.384918
7751.953125	-97.155319
7795.019531	-97.715912
7838.085938	-98.633102
7881.152344	-98.473175
7924.218750	-99.378601
7967.285156	-99.092979
8010.351563	-97.532677
8053.417969	-94.617844
8096.484375	-94.202011
8139.550781	-97.646553
8182.617188	-99.922081
8225.683594	-100.234047
8268.750000	-98.546715
8311.816406	-98.919937
8354.882813	-99.333916
8397.949219	-97.881447
8441.015625	-97.097748
8484.082031	-98.374527
8527.148438	-95.121834
8570.214844	-92.955475
8613.281250	-94.967072
8656.347656	-96.696396
8699.414063	-98.519119
8742.480469	-101.546410
8785.546875	-101.752769
8828.613281	-101.163315
8871.679688	-100.998123
8914.746094	-101.434814
8957.812500	-100.424034
9000.878906	-99.656403
9043.945313	-101.488968
9087.011719	-101.110588
9130.078125	-100.275360
9173.144531	-99.428017
9216.210938	-99.071121
9259.277344	-99.242386
9302.343750	-100.059700
9345.410156	-101.124786
9388.476563	-100.915146
9431.542969	-100.382370
9474.609375	-100.873238
9517.675781	-101.832993
9560.742188	-101.692596
9603.808594	-99.488106
9646.875000	-98.867134
9689.941406	-99.283714
9733.007813	-99.301018
9776.074219	-101.004044
9819.140625	-102.288132
9862.207031	-102.099953
9905.273438	-102.394524
9948.339844	-102.755219
9991.406250	-103.360252
10034.472656	-102.750191
10077.539063	-102.212166
10120.605469	-101.000290
10163.671875	-99.630730
10206.738281	-99.003418
10249.804688	-99.514420
10292.871094	-100.516884
10335.937500	-101.546577
10379.003906	-102.444496
10422.070313	-102.431587
10465.136719	-102.260841
10508.203125	-102.264832
10551.269531	-101.679596
10594.335938	-101.934433
10637.402344	-102.501869
10680.468750	-102.191635
10723.535156	-102.608292
10766.601563	-102.829628
10809.667969	-102.890038
10852.734375	-102.348495
10895.800781	-101.355469
10938.867188	-100.686287
10981.933594	-99.907364
11025.000000	-99.587685
11068.066406	-100.195892
11111.132813	-100.561035
11154.199219	-100.610764
11197.265625	-100.051155
11240.332031	-100.483719
11283.398438	-101.333519
11326.464844	-101.204559
11369.531250	-101.707733
11412.597656	-102.094696
11455.664063	-102.803719
11498.730469	-102.986008
11541.796875	-103.144241
11584.863281	-103.179146
11627.929688	-102.454376
11670.996094	-101.661552
11714.062500	-100.827637
11757.128906	-100.105133
11800.195313	-100.741577
11843.261719	-101.163925
11886.328125	-99.773567
11929.394531	-97.927338
11972.460938	-98.239143
12015.527344	-98.814674
12058.593750	-100.203438
12101.660156	-101.465645
12144.726563	-101.973824
12187.792969	-101.281548
12230.859375	-99.189270
12273.925781	-98.598816
12316.992188	-98.103783
12360.058594	-96.230980
12403.125000	-94.910095
12446.191406	-93.397644
12489.257813	-93.136467
12532.324219	-94.114563
12575.390625	-95.523010
12618.457031	-95.540268
12661.523438	-93.579254
12704.589844	-92.649094
12747.656250	-93.427666
12790.722656	-93.856873
12833.789063	-93.385391
12876.855469	-91.153908
12919.921875	-90.406654
12962.988281	-92.030701
13006.054688	-93.884987
13049.121094	-97.363075
13092.187500	-98.115440
13135.253906	-96.990807
13178.320313	-96.646660
13221.386719	-95.945602
13264.453125	-97.073883
13307.519531	-101.070244
13350.585938	-102.148407
13393.652344	-98.136917
13436.718750	-95.471474
13479.785156	-95.689156
13522.851563	-93.287697
13565.917969	-90.361549
13608.984375	-88.613266
13652.050781	-88.201317
13695.117188	-87.860649
13738.183594	-87.381706
13781.250000	-87.634323
13824.316406	-87.704460
13867.382813	-87.299713
13910.449219	-88.382805
13953.515625	-89.483948
13996.582031	-89.616814
14039.648438	-91.116440
14082.714844	-93.057014
14125.781250	-94.133507
14168.847656	-95.522430
14211.914063	-97.728973
14254.980469	-97.899956
14298.046875	-97.475143
14341.113281	-98.770470
14384.179688	-99.407013
14427.246094	-98.491920
14470.312500	-98.381248
14513.378906	-97.744827
14556.445313	-96.554703
14599.511719	-97.096352
14642.578125	-97.734772
14685.644531	-97.333199
14728.710938	-97.711388
14771.777344	-97.414833
14814.843750	-95.997940
14857.910156	-97.580238
14900.976563	-100.204315
14944.042969	-100.141037
14987.109375	-96.953140
15030.175781	-95.144920
15073.242188	-96.734772
15116.308594	-95.657158
15159.375000	-94.943359
15202.441406	-94.493805
15245.507813	-92.388260
15288.574219	-91.634483
15331.640625	-92.250237
15374.707031	-92.553482
15417.773438	-94.790413
15460.839844	-98.952866
15503.906250	-101.982559
15546.972656	-102.064766
15590.039063	-100.631317
15633.105469	-99.922310
15676.171875	-99.738312
15719.238281	-100.489929
15762.304688	-100.245811
15805.371094	-99.590828
15848.437500	-101.047615
15891.503906	-101.471558
15934.570313	-101.467056
15977.636719	-102.138199
16020.703125	-101.962982
16063.769531	-100.973022
16106.835938	-101.501778
16149.902344	-103.089958
16192.968750	-104.017654
16236.035156	-104.238182
16279.101563	-103.876289
16322.167969	-103.140114
16365.234375	-103.363792
16408.300781	-102.670197
16451.367188	-101.268951
16494.433594	-100.603622
16537.500000	-99.570511
16580.566406	-99.513306
16623.632813	-99.959167
16666.699219	-100.078346
16709.765625	-100.608429
16752.832031	-101.343529
16795.898438	-102.169487
16838.964844	-102.751740
16882.031250	-102.790039
16925.097656	-102.899750
16968.164063	-102.226814
17011.230469	-100.215378
17054.296875	-98.845039
17097.363281	-97.831902
17140.429688	-96.238770
17183.496094	-95.790970
17226.562500	-96.442062
17269.628906	-94.992912
17312.695313	-93.326378
17355.761719	-92.406540
17398.828125	-91.681252
17441.894531	-90.912766
17484.960938	-90.493011
17528.027344	-91.129211
17571.093750	-91.575943
17614.160156	-92.270775
17657.226563	-95.091270
17700.292969	-97.949142
17743.359375	-99.938225
17786.425781	-103.399673
17829.492188	-100.496376
17872.558594	-99.448601
17915.625000	-100.576546
17958.691406	-101.707520
18001.757813	-100.498276
18044.824219	-100.149605
18087.890625	-102.222626
18130.957031	-101.911003
18174.023438	-102.194954
18217.089844	-103.605995
18260.156250	-100.823784
18303.222656	-99.856163
18346.289063	-100.897141
18389.355469	-98.938774
18432.421875	-99.000107
18475.488281	-99.220184
18518.554688	-98.753944
18561.621094	-99.885880
18604.687500	-101.203194
18647.753906	-102.034264
18690.820313	-101.872421
18733.886719	-101.776054
18776.953125	-101.039711
18820.019531	-100.188377
18863.085938	-100.062218
18906.152344	-99.338814
18949.218750	-100.143433
18992.285156	-101.834785
19035.351563	-102.711937
19078.417969	-101.828514
19121.484375	-100.703644
19164.550781	-99.813751
19207.617188	-99.821274
19250.683594	-100.099052
19293.750000	-100.730156
19336.816406	-101.231857
19379.882813	-100.704544
19422.949219	-100.336288
19466.015625	-100.039581
19509.082031	-99.689713
19552.148438	-99.826462
19595.214844	-100.286217
19638.281250	-100.519081
19681.347656	-101.197075
19724.414063	-102.271988
19767.480469	-103.190422
19810.546875	-103.584343
19853.613281	-103.025864
19896.679688	-102.907654
19939.746094	-102.412582
19982.812500	-102.936272
20025.878906	-103.647270
20068.945313	-102.991936
20112.011719	-103.609276
20155.078125	-101.410980
20198.144531	-100.887955
20241.210938	-103.193726
20284.277344	-103.708298
20327.343750	-103.228592
20370.410156	-103.106728
20413.476563	-102.671547
20456.542969	-101.531593
20499.609375	-101.658783
20542.675781	-101.646698
20585.742188	-101.060349
20628.808594	-101.299934
20671.875000	-103.468277
20714.941406	-103.413879
20758.007813	-103.709175
20801.074219	-105.508118
20844.140625	-104.231041
20887.207031	-105.680244
20930.273438	-107.087059
20973.339844	-105.283104
21016.406250	-106.877426
21059.472656	-108.554733
21102.539063	-109.107216
21145.605469	-110.865967
21188.671875	-113.923180
21231.738281	-115.371284
21274.804688	-117.855034
21317.871094	-120.663284
21360.937500	-123.251541
21404.003906	-126.482216
21447.070313	-130.404388
21490.136719	-132.900909
21533.203125	-133.973862
21576.269531	-135.162231
21619.335938	-135.339600
21662.402344	-135.525543
21705.468750	-135.579987
21748.535156	-135.577621
21791.601563	-135.589447
21834.667969	-135.595169
21877.734375	-135.597778
21920.800781	-135.603867
21963.867188	-135.605698
22006.933594	-135.605682
